#     Step Nr.          Time[fs]        Kin.[a.u.]          Temp[K]            Pot.[a.u.]        Cons Qty[a.u.]        UsedTime[s]
         0            0.000000         0.005700268       300.000000000        -8.062885506        -8.057185239         0.000000000
         1            0.500000         0.005193750       273.342427094        -8.062371196        -8.057177446         4.587612000
         2            1.000000         0.004275709       225.026754325        -8.061428967        -8.057153258         1.164086000
         3            1.500000         0.003312788       174.349058283        -8.060438495        -8.057125707         1.169655000
         4            2.000000         0.002711940       142.726998826        -8.059822575        -8.057110635         1.168815000
         5            2.500000         0.002696730       141.926478568        -8.059813147        -8.057116417         1.166137000
         6            3.000000         0.003188407       167.803008485        -8.060326214        -8.057137807         1.166654000
         7            3.500000         0.003875347       203.956042120        -8.061035877        -8.057160531         0.980816000
         8            4.000000         0.004409560       232.071188521        -8.061582291        -8.057172731         0.959547000
         9            4.500000         0.004577780       240.924480800        -8.061750270        -8.057172490         0.959434000
        10            5.000000         0.004347981       228.830368286        -8.061512598        -8.057164617         0.959961000
        11            5.500000         0.003818650       200.972146256        -8.060972298        -8.057153648         0.968106000
        12            6.000000         0.003151398       165.855250554        -8.060293508        -8.057142111         0.973818000
        13            6.500000         0.002523050       132.785860067        -8.059655091        -8.057132041         0.973009000
        14            7.000000         0.002090005       109.995098350        -8.059215211        -8.057125206         0.973962000
        15            7.500000         0.001961199       103.216130463        -8.059083556        -8.057122358         1.167280000
        16            8.000000         0.002183669       114.924555858        -8.059307321        -8.057123652         0.973779000
        17            8.500000         0.002738253       144.111795928        -8.059867258        -8.057129005         0.976285000
        18            9.000000         0.003539820       186.297589732        -8.060677976        -8.057138156         0.973104000
        19            9.500000         0.004440923       233.721791272        -8.061591700        -8.057150777         0.971223000
        20           10.000000         0.005240613       275.808805187        -8.062406711        -8.057166098         0.966656000
        21           10.500000         0.005709419       300.481653366        -8.062889994        -8.057180575         0.960145000
        22           11.000000         0.005655973       297.668831137        -8.062842079        -8.057186105         0.968044000
        23           11.500000         0.005041117       265.309514965        -8.062215773        -8.057174655         0.980482000
        24           12.000000         0.004071276       214.267617474        -8.061219114        -8.057147838         1.166988000
        25           12.500000         0.003157346       166.168280507        -8.060277086        -8.057119740         1.168873000
        26           13.000000         0.002711942       142.727110181        -8.059819591        -8.057107648         1.172114000
        27           13.500000         0.002910095       153.155704771        -8.060028713        -8.057118618         1.169439000
        28           14.000000         0.003591940       189.040577218        -8.060735889        -8.057143950         1.170925000
        29           14.500000         0.004381162       230.576631560        -8.061548025        -8.057166864         0.972216000
        30           15.000000         0.004914424       258.641766459        -8.062091381        -8.057176957         0.959273000
        31           15.500000         0.004998646       263.074281517        -8.062174004        -8.057175358         0.960760000
        32           16.000000         0.004625173       243.418743803        -8.061791796        -8.057166623         0.962116000
        33           16.500000         0.003915082       206.047267453        -8.061068651        -8.057153569         0.973086000
        34           17.000000         0.003064763       161.295767037        -8.060203919        -8.057139155         0.973186000
        35           17.500000         0.002293629       120.711653737        -8.059420456        -8.057126827         0.971123000
        36           18.000000         0.001792514        94.338402420        -8.058911309        -8.057118795         1.176789000
        37           18.500000         0.001687449        88.808961907        -8.058803402        -8.057115952         1.175657000
        38           19.000000         0.002021322       106.380366269        -8.059140192        -8.057118870         0.972920000
        39           19.500000         0.002744358       144.433117491        -8.059872272        -8.057127914         0.971010000
        40           20.000000         0.003710942       195.303575212        -8.060853563        -8.057142621         0.970553000
        41           20.500000         0.004692595       246.967088959        -8.061853104        -8.057160509         0.973156000
        42           21.000000         0.005420934       285.298898623        -8.062597720        -8.057176787         0.959102000
        43           21.500000         0.005661595       297.964679128        -8.062847516        -8.057185921         0.769239000
        44           22.000000         0.005302206       279.050380046        -8.062484829        -8.057182622         0.959845000
        45           22.500000         0.004430575       233.177205376        -8.061594496        -8.057163921         0.971992000
        46           23.000000         0.003362104       176.944552398        -8.060496683        -8.057134579         1.170128000
        47           23.500000         0.002550392       134.224844819        -8.059659768        -8.057109376         1.173830000
        48           24.000000         0.002369923       124.726947941        -8.059474182        -8.057104259         1.171908000
        49           24.500000         0.002897297       152.482130663        -8.060019717        -8.057122421         1.166494000
        50           25.000000         0.003867628       203.549799099        -8.061019050        -8.057151423         1.166074000
        51           25.500000         0.004843328       254.900030473        -8.062018083        -8.057174755         0.985721000
        52           26.000000         0.005446967       286.669010540        -8.062631516        -8.057184549         0.963279000
        53           26.500000         0.005494481       289.169653307        -8.062676023        -8.057181541         0.958475000
        54           27.000000         0.005006122       263.467752717        -8.062175086        -8.057168963         0.967277000
        55           27.500000         0.004156208       218.737543530        -8.061307979        -8.057151770         0.973967000
        56           28.000000         0.003194672       168.132753461        -8.060330416        -8.057135743         0.972723000
        57           28.500000         0.002365017       124.468727351        -8.059489050        -8.057124033         1.167549000
        58           29.000000         0.001851854        97.461433997        -8.058969268        -8.057117414         1.168244000
        59           29.500000         0.001761476        92.704887682        -8.058877386        -8.057115911         1.167786000
        60           30.000000         0.002117278       111.430472035        -8.059236794        -8.057119516         1.023317000
        61           30.500000         0.002858598       150.445479188        -8.059986930        -8.057128332         0.976290000
        62           31.000000         0.003840638       202.129376161        -8.060983144        -8.057142506         0.973881000
        63           31.500000         0.004838971       254.670728577        -8.062000246        -8.057161275         0.974107000
        64           32.000000         0.005573746       293.341258411        -8.062754230        -8.057180485         0.961897000
        65           32.500000         0.005780491       304.222082888        -8.062972007        -8.057191516         0.773845000
        66           33.000000         0.005331403       280.586996434        -8.062517086        -8.057185683         0.967461000
        67           33.500000         0.004345284       228.688416419        -8.061507330        -8.057162047         0.976474000
        68           34.000000         0.003193448       168.068303897        -8.060323270        -8.057129822         1.166833000
        69           34.500000         0.002361719       124.295151149        -8.059466638        -8.057104919         1.175180000
        70           35.000000         0.002217458       116.702845563        -8.059318917        -8.057101459         1.175366000
        71           35.500000         0.002811356       147.959169072        -8.059932586        -8.057121230         1.168013000
        72           36.000000         0.003851669       202.709898493        -8.061004023        -8.057152354         1.168698000
        73           36.500000         0.004870507       256.330434261        -8.062048670        -8.057178163         0.972960000
        74           37.000000         0.005464951       287.615471845        -8.062652186        -8.057187236         0.960552000
        75           37.500000         0.005461163       287.416147156        -8.062641551        -8.057180388         0.961794000
        76           38.000000         0.004919915       258.930738802        -8.062085935        -8.057166020         0.964994000
        77           38.500000         0.004039021       212.570050496        -8.061188939        -8.057149918         0.972147000
        78           39.000000         0.003064683       161.291530665        -8.060198980        -8.057134297         0.972330000
        79           39.500000         0.002241295       117.957330739        -8.059362630        -8.057121335         1.170709000
        80           40.000000         0.001771029        93.207701720        -8.058884498        -8.057113468         1.175969000
        81           40.500000         0.001775613        93.448935127        -8.058888026        -8.057112413         1.170594000
        82           41.000000         0.002270281       119.482852732        -8.059388957        -8.057118676         1.170548000
        83           41.500000         0.003156360       166.116435878        -8.060287860        -8.057131499         0.974781000
        84           42.000000         0.004234686       222.867744305        -8.061383473        -8.057148787         0.978550000
        85           42.500000         0.005239321       275.740776935        -8.062407005        -8.057167684         0.974440000
        86           43.000000         0.005886389       309.795379776        -8.063071095        -8.057184706         0.961531000
        87           43.500000         0.005939389       312.584767109        -8.063132985        -8.057193596         0.773235000
        88           44.000000         0.005307616       279.335072900        -8.062493197        -8.057185581         0.961710000
        89           44.500000         0.004154212       218.632490165        -8.061312611        -8.057158399         1.169717000
        90           45.000000         0.002907109       152.998530520        -8.060030256        -8.057123148         1.187450000
        91           45.500000         0.002094512       110.232273620        -8.059193343        -8.057098831         1.174216000
        92           46.000000         0.002074281       109.167571087        -8.059174093        -8.057099811         1.172984000
        93           46.500000         0.002832813       149.088397030        -8.059957896        -8.057125083         1.171216000
        94           47.000000         0.003997494       210.384535010        -8.061157008        -8.057159514         0.982098000
        95           47.500000         0.005047946       265.668914486        -8.062233424        -8.057185478         0.964286000
        96           48.000000         0.005572335       293.267045322        -8.062765577        -8.057193242         0.772538000
        97           48.500000         0.005418014       285.145265211        -8.062602111        -8.057184096         0.962795000
        98           49.000000         0.004686875       246.666033359        -8.061852659        -8.057165785         0.973051000
        99           49.500000         0.003634633       191.287484729        -8.060780285        -8.057145652         0.973708000
       100           50.000000         0.002561562       134.812747815        -8.059689826        -8.057128263         0.975582000
       101           50.500000         0.001735454        91.335420470        -8.058851615        -8.057116161         1.169485000
       102           51.000000         0.001345744        70.825292452        -8.058456409        -8.057110665         1.167425000
       103           51.500000         0.001479320        77.855277333        -8.058591546        -8.057112226         1.169777000
       104           52.000000         0.002112235       111.165047576        -8.059232785        -8.057120549         1.171552000
       105           52.500000         0.003114576       163.917359833        -8.060249225        -8.057134649         0.977890000
       106           53.000000         0.004267117       224.574568154        -8.061420022        -8.057152904         0.974243000
       107           53.500000         0.005290586       278.438799756        -8.062463166        -8.057172580         0.977013000
       108           54.000000         0.005895863       310.294008525        -8.063084123        -8.057188260         0.963189000
       109           54.500000         0.005871175       308.994695113        -8.063062731        -8.057191557         0.778206000
       110           55.000000         0.005196859       273.506046955        -8.062373549        -8.057176690         0.982431000
       111           55.500000         0.004114793       216.557878418        -8.061262378        -8.057147585         1.171718000
       112           56.000000         0.003067905       161.461091360        -8.060185247        -8.057117342         1.170476000
       113           56.500000         0.002509411       132.068061204        -8.059611013        -8.057101602         1.176147000
       114           57.000000         0.002675528       140.810670092        -8.059784729        -8.057109201         1.175359000
       115           57.500000         0.003459691       182.080452813        -8.060594812        -8.057135121         1.168570000
       116           58.000000         0.004477871       235.666357041        -8.061642695        -8.057164824         0.971366000
       117           58.500000         0.005273962       277.563923490        -8.062458526        -8.057184564         0.959243000
       118           59.000000         0.005528260       290.947382772        -8.062715824        -8.057187564         0.771027000
       119           59.500000         0.005164695       271.813266624        -8.062340742        -8.057176048         0.957415000
       120           60.000000         0.004328436       227.801702524        -8.061486143        -8.057157708         0.972586000
       121           60.500000         0.003283535       172.809517255        -8.060422863        -8.057139328         0.975392000
       122           61.000000         0.002310382       121.593320403        -8.059434918        -8.057124537         1.180121000
       123           61.500000         0.001640459        86.335892673        -8.058755611        -8.057115152         1.173770000
       124           62.000000         0.001421775        74.826764364        -8.058533876        -8.057112100         1.173957000
       125           62.500000         0.001702571        89.604778883        -8.058818094        -8.057115523         1.170048000
       126           63.000000         0.002428390       127.803976666        -8.059553373        -8.057124983         1.170224000
       127           63.500000         0.003449912       181.565780478        -8.060589505        -8.057139593         0.975815000
       128           64.000000         0.004539337       238.901244205        -8.061697300        -8.057157964         0.974442000
       129           64.500000         0.005418749       285.183917093        -8.062595891        -8.057177143         0.967367000
       130           65.000000         0.005815298       306.053969096        -8.063006063        -8.057190765         0.960504000
       131           65.500000         0.005558306       292.528683762        -8.062748594        -8.057190288         0.960939000
       132           66.000000         0.004693525       247.016049563        -8.061865002        -8.057171476         0.975281000
       133           66.500000         0.003530496       185.806846719        -8.060670617        -8.057140121         1.170887000
       134           67.000000         0.002551976       134.308195917        -8.059662494        -8.057110518         1.173514000
       135           67.500000         0.002199715       115.769035010        -8.059298802        -8.057099087         1.172573000
       136           68.000000         0.002640552       138.969873130        -8.059753622        -8.057113071         1.173459000
       137           68.500000         0.003667344       193.009056264        -8.060811543        -8.057144199         1.172592000
       138           69.000000         0.004813309       253.320164859        -8.061988884        -8.057175575         0.979140000
       139           69.500000         0.005594250       294.420372889        -8.062787224        -8.057192974         0.774957000
       140           70.000000         0.005722795       301.185591249        -8.062913908        -8.057191113         0.773751000
       141           70.500000         0.005192424       273.272663565        -8.062367208        -8.057174784         0.974864000
       142           71.000000         0.004219025       222.043543639        -8.061372337        -8.057153311         0.973275000
       143           71.500000         0.003112851       163.826547801        -8.060246853        -8.057134002         0.974207000
       144           72.000000         0.002167313       114.063734675        -8.059287727        -8.057120414         0.972358000
       145           72.500000         0.001595751        83.982968334        -8.058709439        -8.057113688         1.166896000
       146           73.000000         0.001506562        79.289023163        -8.058620292        -8.057113730         1.174018000
       147           73.500000         0.001901300       100.063734284        -8.059021060        -8.057119760         1.169018000
       148           74.000000         0.002685264       141.323030956        -8.059816091        -8.057130827         0.976012000
       149           74.500000         0.003682561       193.809906830        -8.060828737        -8.057146176         0.974429000
       150           75.000000         0.004652981       244.882217977        -8.061817484        -8.057164504         0.973139000
       151           75.500000         0.005324933       280.246493706        -8.062505927        -8.057180993         0.960046000
       152           76.000000         0.005472834       288.030380876        -8.062659752        -8.057186917         0.969613000
       153           76.500000         0.005031261       264.790767484        -8.062207985        -8.057176724         0.972006000
       154           77.000000         0.004164738       219.186438128        -8.061318585        -8.057153847         0.973025000
       155           77.500000         0.003227665       169.869118996        -8.060354686        -8.057127021         1.165234000
       156           78.000000         0.002628974       138.360546877        -8.059737509        -8.057108535         1.171101000
       157           78.500000         0.002643329       139.116046011        -8.059753024        -8.057109696         1.171066000
       158           79.000000         0.003256924       171.408993927        -8.060386915        -8.057129991         1.166438000
       159           79.500000         0.004174371       219.693403102        -8.061330637        -8.057156266         1.163122000
       160           80.000000         0.004993434       262.799976815        -8.062168716        -8.057175282         0.967621000
       161           80.500000         0.005398190       284.101905049        -8.062580961        -8.057182771         0.771659000
       162           81.000000         0.005249461       276.274436167        -8.062429035        -8.057179574         0.961138000
       163           81.500000         0.004589461       241.539240722        -8.061756210        -8.057166749         0.971358000
       164           82.000000         0.003610578       190.021519651        -8.060758555        -8.057147977         0.972138000
       165           82.500000         0.002587308       136.167692737        -8.059717665        -8.057130357         0.973382000
       166           83.000000         0.001780722        93.717797395        -8.058899696        -8.057118975         0.972924000
       167           83.500000         0.001366137        71.898578924        -8.058480966        -8.057114829         1.180571000
       168           84.000000         0.001411135        74.266760028        -8.058528038        -8.057116904         1.167968000
       169           84.500000         0.001885141        99.213300213        -8.059009176        -8.057124035         1.166556000
       170           85.000000         0.002676791       140.877128664        -8.059811903        -8.057135112         0.972737000
       171           85.500000         0.003613374       190.168651908        -8.060761941        -8.057148567         0.972832000
       172           86.000000         0.004486981       236.145822213        -8.061649356        -8.057162375         0.966216000
       173           86.500000         0.005087862       267.769657405        -8.062262306        -8.057174444         0.958655000
       174           87.000000         0.005242907       275.929520348        -8.062424751        -8.057181844         0.959220000
       175           87.500000         0.004870294       256.319238351        -8.062049274        -8.057178980         0.976753000
       176           88.000000         0.004057015       213.517091140        -8.061218039        -8.057161024         1.057101000
       177           88.500000         0.003104540       163.389187885        -8.060237086        -8.057132546         1.169005000
       178           89.000000         0.002444857       128.670627956        -8.059554211        -8.057109354         1.175320000
       179           89.500000         0.002416701       127.188832421        -8.059524091        -8.057107389         1.174001000
       180           90.000000         0.003047944       160.410584754        -8.060176819        -8.057128875         1.166192000
       181           90.500000         0.004026536       211.913001541        -8.061186267        -8.057159731         1.176763000
       182           91.000000         0.004893151       257.522147771        -8.062074563        -8.057181412         0.967232000
       183           91.500000         0.005299083       278.886005073        -8.062484566        -8.057185483         0.957580000
       184           92.000000         0.005139877       270.507149920        -8.062315955        -8.057176077         0.957801000
       185           92.500000         0.004521820       237.979355410        -8.061682967        -8.057161147         0.972652000
       186           93.000000         0.003656866       192.457613371        -8.060802855        -8.057145988         0.971678000
       187           93.500000         0.002774920       146.041573240        -8.059908332        -8.057133412         0.971351000
       188           94.000000         0.002071032       108.996558588        -8.059196032        -8.057125000         0.971722000
       189           94.500000         0.001677590        88.290080452        -8.058798769        -8.057121178         0.970190000
       190           95.000000         0.001655075        87.105140837        -8.058776770        -8.057121695         1.165820000
       191           95.500000         0.001994032       104.944107964        -8.059120241        -8.057126209         0.972658000
       192           96.000000         0.002620867       137.933869715        -8.059755105        -8.057134238         0.971951000
       193           96.500000         0.003407425       179.329739987        -8.060552130        -8.057144705         0.976341000
       194           97.000000         0.004189006       220.463633136        -8.061345187        -8.057156182         0.967098000
       195           97.500000         0.004787612       251.967741791        -8.061955276        -8.057167664         0.959091000
       196           98.000000         0.005037876       265.138936328        -8.062214607        -8.057176730         0.970139000
       197           98.500000         0.004837295       254.582514878        -8.062013791        -8.057176497         0.962637000
       198           99.000000         0.004236170       222.945860433        -8.061397041        -8.057160870         0.972435000
       199           99.500000         0.003493705       183.870577933        -8.060629114        -8.057135409         1.168451000
       200          100.000000         0.002986551       157.179515927        -8.060102918        -8.057116367         1.173690000
       201          100.500000         0.002989853       157.353300021        -8.060106429        -8.057116576         1.172643000
       202          101.000000         0.003501406       184.275886656        -8.060636381        -8.057134975         1.164032000
       203          101.500000         0.004251031       223.727952093        -8.061410168        -8.057159138         0.970938000
       204          102.000000         0.004868641       256.232235594        -8.062045758        -8.057177117         0.978181000
